Time (ms), Resistance (Ohms)
0,988.19
1000,1035.60
2001,1035.60
3002,1035.60
4002,1047.52
5004,1035.60
6004,1047.52
7006,1035.60
8006,1035.60
9008,1023.71
10008,1035.60
11009,1023.71
12010,1035.60
13010,1023.71
14012,1035.60
15012,1023.71
16014,1047.52
17014,1035.60
18016,1035.60
19016,1035.60
20018,1035.60
21018,1047.52
22020,1000.00
23020,1035.60
24022,1047.52
25022,1035.60
26022,1035.60
27024,1047.52
28024,1000.00
29026,1083.42
30026,1035.60
31028,1035.60
32028,1035.60
33030,1059.46
34030,988.19
35032,1000.00
36032,1083.42
37033,1035.60
38034,1035.60
39035,1035.60
40036,1035.60
41036,1023.71
42038,1023.71
43038,1035.60
44040,1035.60
45040,1023.71
46042,1083.42
47042,929.49
48044,1047.52
49044,1035.60
50045,1035.60
51046,1011.84
52047,988.19
53048,1035.60
54049,1023.71
55050,1035.60
56050,1035.60
57052,1035.60
58052,1035.60
59054,1047.52
60054,1035.60
61056,1083.42
62056,1035.60
63057,1035.60
64058,1035.60
65059,1023.71
66060,1035.60
67061,1035.60
68062,1047.52
69063,1035.60
70064,1035.60
71065,1000.00
72066,1035.60
73066,1059.46
74067,1035.60
75068,1047.52
76069,1035.60
77070,1071.43
78071,1035.60
79072,1071.43
80073,1059.46
81074,1035.60
82075,1047.52
83076,1011.84
84077,1035.60
85078,1023.71
86079,1047.52
87079,1035.60
88080,1035.60
89081,1035.60
90082,1047.52
91083,1035.60
92084,1035.60
93085,1035.60
94086,1035.60
95087,1035.60
96088,1035.60
97089,1023.71
98089,1035.60
99091,1107.49
100091,1035.60
101093,1035.60
102093,1023.71
103095,1047.52
104095,1035.60
105097,1035.60
106097,1035.60
107099,1000.00
108099,1023.71
109101,1047.52
110101,1023.71
111102,1035.60
112103,1083.42
113104,1071.43
114105,1035.60
115106,1035.60
116107,1035.60
117108,1023.71
118109,1035.60
119110,1119.56
120111,1023.71
121112,1023.71
122113,1035.60
123114,1035.60
124114,1000.00
125116,1035.60
126116,1047.52
127118,1035.60
128119,1035.60
129120,1035.60
130121,964.63
131122,1047.52
132123,1035.60
133124,1035.60
134125,1035.60
135126,1023.71
136127,1083.42
137127,1011.84
138129,1035.60
139129,1047.52
140131,1011.84
141131,1023.71
142133,1023.71
143133,1023.71
144135,1011.84
145135,1023.71
146137,1011.84
147137,1023.71
148139,1023.71
149139,1023.71
150140,1023.71
151141,1035.60
152142,964.63
153143,1011.84
154144,1023.71
155145,1023.71
156146,1095.45
157147,1035.60
158148,1000.00
159149,1023.71
160150,1023.71
161150,1035.60
162152,1023.71
163152,1023.71
164154,1035.60
165154,1035.60
166156,1035.60
167157,1035.60
168158,1023.71
169159,1035.60
170160,1035.60
171161,1023.71
172162,1023.71
173163,976.39
174163,1023.71
175165,1107.49
176165,1035.60
177167,1023.71
178167,1011.84
179169,1035.60
180169,952.89
181171,1023.71
182171,1035.60
183173,1035.60
184173,1023.71
185175,1023.71
186175,988.19
187176,1071.43
188177,1023.71
189178,1035.60
190179,1023.71
191180,1059.46
192181,1047.52
193182,1047.52
194183,1035.60
195184,1035.60
196185,1035.60
197186,1035.60
198187,1035.60
199188,1047.52
200188,1083.42
201190,1023.71
202190,1035.60
203192,1023.71
204192,1119.56
205194,1023.71
206194,1035.60
207196,1035.60
208197,1035.60
209198,1035.60
210199,1023.71
211200,1035.60
212201,1035.60
213201,1011.84
214203,1035.60
215203,1023.71
216205,1023.71
217205,1011.84
218207,1011.84
219207,1095.45
220209,1035.60
221209,1035.60
222211,1023.71
223211,1035.60
224212,1011.84
225213,1023.71
226214,1023.71
227215,1000.00
228216,1035.60
229217,1011.84
230218,1011.84
231219,1047.52
232220,988.19
233221,988.19
234222,1023.71
235223,1011.84
236224,1011.84
237224,1023.71
238226,1047.52
239226,1011.84
240228,1011.84
241228,1083.42
242230,1011.84
243230,1023.71
244232,1023.71
245232,1011.84
246234,1023.71
247234,1023.71
248236,1011.84
249237,1023.71
250237,1023.71
251239,1059.46
252239,1011.84
253241,1023.71
254241,1071.43
255243,1023.71
256243,1011.84
257245,1000.00
258245,1000.00
259247,1011.84
260247,1011.84
261249,894.57
262249,1000.00
263250,1000.00
264251,1011.84
265252,1011.84
266253,1023.71
267254,1011.84
268255,1011.84
269256,1011.84
270257,1000.00
271258,1000.00
272259,1047.52
273260,1000.00
274260,1000.00
275262,1011.84
276262,1011.84
277264,1011.84
278264,1023.71
279266,1011.84
280266,964.63
281268,1011.84
282268,1011.84
283270,1059.46
284270,964.63
285272,1095.45
286272,1000.00
287273,1000.00
288274,1023.71
289275,1023.71
290276,976.39
291277,964.63
292278,1047.52
293279,1000.00
294280,1011.84
295281,1000.00
296282,1011.84
297283,1000.00
298284,976.39
299285,1000.00
300285,1000.00
301287,1023.71
302287,976.39
303289,976.39
304289,1011.84
305291,1000.00
306291,1000.00
307293,964.63
308293,1023.71
309295,1000.00
310295,1035.60
311297,976.39
312297,988.19
313298,952.89
314299,988.19
315300,952.89
316301,882.98
317302,988.19
318303,988.19
319304,917.82
320305,964.63
321306,976.39
322307,1000.00
323308,976.39
324308,976.39
325310,988.19
326310,1023.71
327312,976.39
328312,964.63
329314,941.18
330314,1000.00
331316,964.63
332316,988.19
333318,976.39
334318,1047.52
335319,964.63
336320,976.39
337320,988.19
338322,976.39
339322,964.63
340324,976.39
341324,988.19
342326,976.39
343326,988.19
344328,952.89
345328,988.19
346330,976.39
347330,964.63
348332,976.39
349332,976.39
350333,976.39
351334,906.18
352335,988.19
353336,952.89
354336,976.39
355338,988.19
356338,988.19
357340,1000.00
358340,964.63
359342,1059.46
360342,976.39
361344,964.63
362344,976.39
363345,964.63
364346,964.63
365347,976.39
366348,906.18
367349,988.19
368350,976.39
369351,976.39
370352,988.19
371353,964.63
372354,941.18
373355,976.39
374355,1000.00
375357,964.63
376357,964.63
377359,976.39
378359,1023.71
379361,964.63
380361,941.18
381362,964.63
382363,976.39
383364,976.39
384365,964.63
385366,1000.00
386367,976.39
387367,964.63
388369,976.39
389369,964.63
390371,976.39
391371,917.82
392373,1011.84
393373,964.63
394375,964.63
395375,976.39
396377,952.89
397377,1047.52
398379,964.63
399379,976.39
400380,964.63
401381,976.39
402382,964.63
403383,976.39
404383,964.63
405385,964.63
406385,917.82
407387,976.39
408387,894.57
409389,952.89
410389,964.63
411390,952.89
412391,964.63
413392,941.18
414393,988.19
415394,976.39
416395,964.63
417396,964.63
418397,1000.00
419398,964.63
420399,1011.84
421400,917.82
422401,964.63
423402,976.39
424402,976.39
425403,952.89
426404,952.89
427405,976.39
428406,964.63
429407,952.89
430408,952.89
431409,964.63
432410,976.39
433411,952.89
434412,964.63
435412,952.89
436414,964.63
437414,964.63
438416,964.63
439416,952.89
440418,906.18
441418,929.49
442419,964.63
443420,952.89
444421,964.63
445422,964.63
446423,941.18
447424,882.98
448424,929.49
449426,952.89
450426,952.89
451428,952.89
452428,988.19
453430,941.18
454430,941.18
455432,941.18
456432,964.63
457434,941.18
458434,964.63
459436,964.63
460436,894.57
461436,941.18
462438,941.18
463438,941.18
464440,941.18
465440,1000.00
466442,929.49
467442,917.82
468444,941.18
469444,929.49
470446,941.18
471446,929.49
472448,941.18
473448,941.18
474449,929.49
475450,941.18
476451,941.18
477452,941.18
478453,964.63
479454,894.57
480454,929.49
481456,929.49
482456,929.49
483458,929.49
484458,941.18
485459,917.82
486460,941.18
487461,941.18
488462,1000.00
489463,964.63
490464,941.18
491465,941.18
492466,1011.84
493467,941.18
494468,941.18
495469,941.18
496470,976.39
497471,952.89
498471,952.89
499473,952.89
500473,952.89
501474,952.89
502475,952.89
503476,917.82
504477,941.18
505478,941.18
506479,964.63
507480,941.18
508481,941.18
509481,1000.00
510483,894.57
511483,929.49
512485,941.18
513485,952.89
514487,952.89
515487,941.18
516489,929.49
517489,941.18
518491,952.89
519491,941.18
520492,941.18
521493,941.18
522493,941.18
523495,941.18
524495,941.18
525497,929.49
526497,941.18
527499,894.57
528499,917.82
529501,929.49
530501,906.18
531503,929.49
532503,929.49
533505,929.49
534505,917.82
535506,941.18
536507,929.49
537508,929.49
538509,929.49
539509,941.18
540511,917.82
541511,906.18
542513,917.82
543513,929.49
544515,906.18
545515,917.82
546516,929.49
547517,917.82
548518,917.82
549519,917.82
550520,906.18
551521,952.89
552522,917.82
553523,906.18
554524,917.82
555525,917.82
556526,917.82
557527,906.18
558527,976.39
559528,906.18
560529,917.82
561530,917.82
562531,988.19
563532,917.82
564533,894.57
565534,906.18
566535,917.82
567536,917.82
568537,871.41
569538,917.82
570539,917.82
571540,906.18
572540,929.49
573542,917.82
574542,917.82
575544,941.18
576544,906.18
577545,929.49
578546,906.18
579547,917.82
580548,894.57
581549,929.49
582550,894.57
583550,917.82
584552,917.82
585552,917.82
586554,917.82
587554,906.18
588556,917.82
589556,906.18
590558,917.82
591558,906.18
592560,906.18
593560,906.18
594562,929.49
595562,917.82
596562,929.49
597564,917.82
598564,929.49
599566,917.82
600566,871.41
601568,906.18
602568,917.82
603570,917.82
604570,882.98
605572,906.18
606572,894.57
607574,894.57
608574,917.82
609575,917.82
610576,906.18
611577,906.18
612578,906.18
613579,906.18
614580,906.18
615580,906.18
616582,894.57
617582,871.41
618584,906.18
619584,906.18
620585,882.98
621586,894.57
622587,906.18
623588,894.57
624589,906.18
625590,894.57
626591,882.98
627592,952.89
628593,882.98
629594,894.57
630595,882.98
631596,882.98
632597,836.86
633597,882.98
634599,836.86
635599,859.87
636600,871.41
637601,871.41
638602,871.41
639603,871.41
640604,836.86
641605,894.57
642606,906.18
643607,882.98
644608,894.57
645609,882.98
646609,882.98
647611,952.89
648611,894.57
649613,882.98
650613,859.87
651615,882.98
652615,882.98
653616,882.98
654617,882.98
655618,882.98
656619,802.53
657619,813.95
658621,952.89
659621,894.57
660623,894.57
661623,894.57
662625,894.57
663625,894.57
664627,871.41
665627,894.57
666629,894.57
667629,894.57
668631,906.18
669631,894.57
670632,871.41
671633,941.18
672633,929.49
673635,894.57
674635,894.57
675637,894.57
676637,882.98
677639,894.57
678639,871.41
679641,848.36
680641,836.86
681643,894.57
682643,906.18
683644,917.82
684645,836.86
685646,894.57
686647,882.98
687648,882.98
688649,882.98
689649,882.98
690651,894.57
691651,882.98
692653,882.98
693653,976.39
694654,894.57
695655,882.98
696656,917.82
697657,894.57
698658,894.57
699659,894.57
700660,906.18
701661,906.18
702662,882.98
703663,882.98
704664,882.98
705665,882.98
706665,882.98
707666,825.40
708667,871.41
709668,882.98
710669,882.98
711670,882.98
712671,906.18
713672,941.18
714673,882.98
715674,882.98
716675,894.57
717676,917.82
718676,871.41
719678,964.63
720678,882.98
721680,894.57
722680,906.18
723682,882.98
724682,929.49
725683,929.49
726684,894.57
727685,882.98
728686,941.18
729687,871.41
730688,906.18
731688,871.41
732690,882.98
733690,882.98
734692,882.98
735692,871.41
736694,894.57
737694,894.57
738696,894.57
739696,882.98
740698,894.57
741698,917.82
742700,882.98
743700,894.57
744700,836.86
745702,882.98
746702,882.98
747704,882.98
748704,871.41
749706,871.41
750706,871.41
751708,871.41
752708,882.98
753710,871.41
754710,871.41
755712,859.87
756712,871.41
757713,871.41
758714,882.98
759715,882.98
760716,871.41
761716,871.41
762718,894.57
763718,882.98
764720,871.41
765720,882.98
766722,871.41
767722,952.89
768723,871.41
769724,871.41
770725,871.41
771726,825.40
772727,871.41
773728,882.98
774729,871.41
775730,871.41
776731,859.87
777732,848.36
778733,882.98
779734,894.57
780734,871.41
781735,882.98
782736,871.41
783737,813.95
784738,871.41
785739,871.41
786740,871.41
787741,871.41
788742,859.87
789743,848.36
790744,859.87
791745,871.41
792745,906.18
793747,871.41
794747,882.98
795749,882.98
796749,871.41
797751,836.86
798751,859.87
799752,894.57
800753,871.41
801754,871.41
802755,859.87
803756,882.98
804757,871.41
805757,871.41
806759,859.87
807759,871.41
808761,894.57
809761,871.41
810763,871.41
811763,871.41
812765,871.41
813765,894.57
814767,871.41
815767,813.95
816769,871.41
817769,871.41
818769,871.41
819771,871.41
820771,836.86
821773,871.41
822773,859.87
823775,871.41
824775,848.36
825777,813.95
826777,871.41
827779,871.41
828779,871.41
829780,882.98
830781,859.87
831782,871.41
832783,964.63
833784,882.98
834785,871.41
835785,882.98
836787,882.98
837787,871.41
838789,825.40
839789,871.41
840791,871.41
841791,871.41
842792,894.57
843793,871.41
844794,848.36
845795,871.41
846796,859.87
847797,871.41
848798,871.41
849799,848.36
850800,952.89
851801,871.41
852802,859.87
853803,859.87
854803,859.87
855804,871.41
856805,848.36
857806,859.87
858807,859.87
859808,848.36
860809,859.87
861810,859.87
862811,871.41
863812,848.36
864813,848.36
865814,859.87
866814,871.41
867816,882.98
868816,871.41
869818,813.95
870818,871.41
871820,964.63
872820,871.41
873821,941.18
874822,859.87
875823,871.41
876824,871.41
877825,859.87
878826,859.87
879826,871.41
880828,871.41
881828,859.87
882830,859.87
883830,836.86
884832,859.87
885832,871.41
886834,882.98
887834,882.98
888836,882.98
889836,859.87
890838,906.18
891838,859.87
892838,859.87
893840,859.87
894840,871.41
895842,952.89
896842,906.18
897844,848.36
898844,952.89
899846,859.87
900846,871.41
901848,871.41
902848,871.41
903849,859.87
904850,859.87
905851,871.41
906852,871.41
907853,871.41
908854,871.41
909855,859.87
910856,871.41
911856,906.18
912858,882.98
913858,894.57
914860,836.86
915860,882.98
916861,871.41
917862,836.86
918863,882.98
919864,882.98
920865,882.98
921866,952.89
922867,894.57
923868,882.98
924869,871.41
925870,848.36
926871,871.41
927872,859.87
928872,871.41
929873,848.36
930874,859.87
931875,859.87
932876,859.87
933877,848.36
934878,859.87
935879,859.87
936880,859.87
937881,859.87
938882,894.57
939883,871.41
940883,871.41
941885,871.41
942885,871.41
943887,871.41
944887,871.41
945889,871.41
946889,848.36
947890,871.41
948891,871.41
949892,882.98
950893,859.87
951894,836.86
952895,871.41
953895,871.41
954897,871.41
955897,871.41
956899,848.36
957899,825.40
958901,871.41
959901,882.98
960903,871.41
961903,871.41
962905,871.41
963905,871.41
964907,952.89
965907,871.41
966907,882.98
967909,894.57
968909,882.98
969911,882.98
970911,871.41
971913,848.36
972913,871.41
973915,871.41
974915,871.41
975917,882.98
976917,836.86
977918,882.98
978919,917.82
979920,882.98
980921,882.98
981922,882.98
982923,871.41
983924,882.98
984925,859.87
985925,871.41
986927,871.41
987927,871.41
988929,894.57
989929,848.36
990930,871.41
991931,871.41
992932,941.18
993933,882.98
994934,871.41
995935,871.41
996936,871.41
997937,871.41
998938,882.98
999939,871.41
1000940,859.87
1001940,871.41
1002942,882.98
1003942,882.98
1004944,836.86
1005944,906.18
1006946,871.41
1007946,871.41
1008948,882.98
1009948,871.41
1010950,871.41
1011950,871.41
1012952,848.36
1013952,848.36
1014953,882.98
1015954,871.41
1016955,848.36
1017956,848.36
1018957,871.41
1019958,825.40
1020959,894.57
1021960,859.87
1022961,871.41
1023962,882.98
1024963,882.98
1025964,882.98
1026965,894.57
1027965,882.98
1028967,882.98
1029968,871.41
1030969,882.98
1031970,871.41
1032971,871.41
1033972,871.41
1034973,882.98
1035974,871.41
1036975,941.18
1037976,882.98
1038977,894.57
1039978,871.41
1040978,871.41
1041980,836.86
1042980,882.98
1043982,871.41
1044982,871.41
1045984,882.98
1046984,848.36
1047986,859.87
1048986,802.53
1049988,871.41
1050988,882.98
1051990,882.98
1052990,882.98
1053991,894.57
1054992,848.36
1055993,871.41
1056994,882.98
1057995,848.36
1058996,848.36
1059997,906.18
1060998,906.18
1061999,848.36
1063001,871.41
1064001,871.41
1065003,871.41
1066003,871.41
1067004,859.87
1068005,871.41
1069006,859.87
1070007,859.87
1071008,859.87
1072009,859.87
1073010,848.36
1074011,836.86
1075012,894.57
1076013,859.87
1077014,859.87
1078014,871.41
1079016,871.41
1080016,859.87
1081018,871.41
1082018,871.41
1083020,859.87
1084020,871.41
1085022,859.87
1086022,894.57
1087024,859.87
1088024,894.57
1089026,848.36
1090026,859.87
1091027,894.57
1092028,871.41
1093029,894.57
1094030,859.87
1095031,871.41
1096033,882.98
1097033,871.41
1098035,859.87
1099035,859.87
1100037,859.87
1101037,848.36
1102039,941.18
1103039,836.86
1104040,859.87
1105041,859.87
1106042,871.41
1107043,848.36
1108044,859.87
1109045,871.41
1110046,871.41
1111047,859.87
1112048,882.98
1113049,859.87
1114050,882.98
1115051,871.41
1116052,859.87
1117052,871.41
1118054,859.87
1119054,871.41
1120056,906.18
1121056,917.82
1122058,882.98
1123058,859.87
1124060,859.87
1125060,859.87
1126062,836.86
1127062,848.36
1128064,848.36
1129065,929.49
1130065,848.36
1131067,836.86
1132067,859.87
1133069,848.36
1134069,848.36
1135071,836.86
1136071,848.36
1137073,859.87
1138073,848.36
1139075,848.36
1140075,848.36
1141076,859.87
1142077,859.87
1143078,871.41
1144079,848.36
1145080,859.87
1146081,859.87
1147082,917.82
1148083,882.98
1149084,859.87
1150085,871.41
1151086,859.87
1152087,871.41
1153088,859.87
1154088,917.82
1155090,929.49
1156090,859.87
1157092,871.41
1158092,859.87
1159094,848.36
1160095,882.98
1161096,836.86
1162097,859.87
1163098,859.87
1164099,859.87
1165100,836.86
1166101,871.41
1167101,871.41
1168103,871.41
1169103,859.87
1170105,871.41
1171105,871.41
1172107,848.36
1173107,859.87
1174109,859.87
1175109,906.18
1176111,871.41
1177111,848.36
1178113,859.87
1179113,859.87
1180114,859.87
1181115,859.87
1182116,836.86
1183117,906.18
1184118,871.41
1185119,859.87
1186120,859.87
1187121,836.86
1188122,848.36
1189124,848.36
1190124,859.87
1191126,848.36
1192126,859.87
1193127,825.40
1194128,848.36
1195129,859.87
1196130,859.87
1197131,859.87
1198132,813.95
1199133,848.36
1200134,848.36
1201135,848.36
1202136,848.36
1203137,848.36
1204137,859.87
1205139,859.87
1206139,859.87
1207141,848.36
1208141,859.87
1209143,848.36
1210143,848.36
1211145,882.98
1212145,859.87
1213147,859.87
1214147,859.87
1215149,836.86
1216149,836.86
1217150,859.87
1218151,836.86
1219152,836.86
1220153,802.53
1221154,848.36
1222156,848.36
1223156,848.36
1224158,859.87
1225158,848.36
1226160,882.98
1227160,859.87
1228162,871.41
1229162,859.87
1230163,848.36
1231164,859.87
1232165,848.36
1233166,859.87
1234167,859.87
1235168,859.87
1236169,859.87
1237170,906.18
1238171,848.36
1239172,859.87
1240173,848.36
1241174,848.36
1242175,813.95
1243175,825.40
1244177,813.95
1245177,848.36
1246179,848.36
1247179,871.41
1248181,825.40
1249181,848.36
1250183,836.86
1251183,848.36
1252185,825.40
1253186,848.36
1254187,859.87
1255188,859.87
1256188,859.87
1257190,848.36
1258190,859.87
1259192,836.86
1260192,859.87
1261194,906.18
1262194,802.53
1263196,802.53
1264196,848.36
1265198,848.36
1266198,848.36
1267200,859.87
1268200,848.36
1269201,882.98
1270202,848.36
1271203,813.95
1272204,825.40
1273205,848.36
1274206,848.36
1275207,848.36
1276208,836.86
1277209,859.87
1278210,871.41
1279211,848.36
1280211,848.36
1281213,848.36
1282213,882.98
1283215,859.87
1284216,848.36
1285217,848.36
1286218,848.36
1287219,859.87
1288220,802.53
1289221,848.36
1290222,848.36
1291223,836.86
1292224,848.36
1293224,848.36
1294226,768.42
1295226,813.95
1296228,836.86
1297228,802.53
1298230,848.36
1299230,836.86
1300232,836.86
1301232,848.36
1302234,871.41
1303234,825.40
1304236,825.40
1305236,791.14
1306237,859.87
1307238,848.36
1308239,836.86
1309240,848.36
1310241,813.95
1311242,848.36
1312243,848.36
1313244,848.36
1314245,848.36
1315246,848.36
1316247,836.86
1317249,836.86
1318249,848.36
1319250,848.36
1320251,791.14
1321252,848.36
1322253,848.36
1323254,848.36
1324255,859.87
1325256,859.87
1326257,836.86
1327258,848.36
1328259,848.36
1329260,882.98
1330260,836.86
1331262,848.36
1332262,848.36
1333264,848.36
1334264,848.36
1335266,848.36
1336266,802.53
1337268,848.36
1338268,848.36
1339270,836.86
1340270,836.86
1341272,882.98
1342272,836.86
1343273,836.86
1344274,779.77
1345275,859.87
1346276,836.86
1347277,848.36
1348278,848.36
1349279,848.36
1350281,836.86
1351281,848.36
1352283,848.36
1353283,882.98
1354285,848.36
1355285,848.36
1356286,836.86
1357287,836.86
1358288,859.87
1359289,848.36
1360290,836.86
1361291,813.95
1362292,836.86
1363293,859.87
1364294,836.86
1365295,848.36
1366296,848.36
1367297,848.36
1368298,848.36
1369298,848.36
1370300,836.86
1371300,848.36
1372302,848.36
1373302,859.87
1374304,848.36
1375304,836.86
1376306,848.36
1377306,836.86
1378308,848.36
1379308,825.40
1380310,836.86
1381311,836.86
1382311,836.86
1383313,836.86
1384313,836.86
1385315,848.36
1386315,802.53
1387317,848.36
1388317,836.86
1389319,836.86
1390319,836.86
1391321,836.86
1392321,848.36
1393323,929.49
1394323,836.86
1395324,836.86
1396325,848.36
1397326,802.53
1398327,848.36
1399328,859.87
1400329,825.40
1401330,836.86
1402331,848.36
1403332,836.86
1404333,836.86
1405334,802.53
1406334,894.57
1407336,848.36
1408336,848.36
1409338,848.36
1410338,836.86
1411340,836.86
1412340,917.82
1413342,745.80
1414343,836.86
1415344,825.40
1416345,836.86
1417346,836.86
1418347,882.98
1419347,848.36
1420349,859.87
1421349,836.86
1422351,859.87
1423351,802.53
1424353,859.87
1425353,836.86
1426355,836.86
1427355,836.86
1428357,836.86
1429357,848.36
1430359,836.86
1431359,836.86
1432360,836.86
1433361,836.86
1434362,836.86
1435363,813.95
1436364,848.36
1437365,848.36
1438366,859.87
1439367,859.87
1440368,791.14
1441369,906.18
1442370,848.36
1443371,836.86
1444372,848.36
1445373,848.36
1446374,929.49
1447375,859.87
1448376,848.36
1449377,859.87
1450378,859.87
1451379,848.36
1452380,859.87
1453381,859.87
1454382,882.98
1455383,859.87
1456384,859.87
1457385,859.87
1458385,906.18
1459387,859.87
1460387,791.14
1461389,871.41
1462389,859.87
1463391,848.36
1464391,848.36
1465393,871.41
1466393,802.53
1467395,825.40
1468395,848.36
1469396,848.36
1470397,848.36
1471398,848.36
1472399,813.95
1473400,825.40
1474401,848.36
1475402,859.87
1476403,848.36
1477404,848.36
1478405,825.40
1479406,848.36
1480408,848.36
1481408,836.86
1482409,825.40
1483410,825.40
1484411,825.40
1485412,848.36
1486413,848.36
1487414,848.36
1488415,848.36
1489416,848.36
1490417,848.36
1491418,836.86
1492419,848.36
1493420,848.36
1494421,825.40
1495421,952.89
1496423,848.36
1497423,848.36
1498425,848.36
1499425,848.36
1500427,859.87
1501427,848.36
1502429,848.36
1503429,848.36
1504431,848.36
1505431,779.77
1506433,848.36
1507433,848.36
1508434,848.36
1509435,848.36
1510436,941.18
1511437,848.36
1512438,848.36
1513440,836.86
1514440,825.40
1515442,813.95
1516442,848.36
1517444,836.86
1518444,848.36
1519446,848.36
1520446,859.87
1521447,859.87
1522448,848.36
1523449,848.36
1524450,848.36
1525451,791.14
1526452,825.40
1527453,848.36
1528454,859.87
1529455,848.36
1530456,836.86
1531457,813.95
1532457,848.36
1533459,848.36
1534459,859.87
1535461,894.57
1536461,848.36
1537463,859.87
1538463,848.36
1539465,848.36
1540465,848.36
1541467,859.87
1542467,848.36
1543469,859.87
1544469,859.87
1545470,848.36
1546472,848.36
1547472,836.86
1548474,825.40
1549474,848.36
1550476,859.87
1551476,848.36
1552478,848.36
1553478,859.87
1554480,791.14
1555480,848.36
1556482,848.36
1557482,848.36
1558483,813.95
1559484,848.36
1560485,848.36
1561486,848.36
1562487,848.36
1563488,836.86
1564489,871.41
1565490,848.36
1566491,836.86
1567492,848.36
1568493,848.36
1569494,779.77
1570495,848.36
1571495,848.36
1572497,802.53
1573497,848.36
1574499,848.36
1575499,848.36
1576501,836.86
1577501,848.36
1578503,859.87
1579504,779.77
1580505,859.87
1581506,848.36
1582507,859.87
1583508,859.87
1584508,941.18
1585510,859.87
1586510,848.36
1587512,848.36
1588512,779.77
1589514,894.57
1590514,859.87
1591516,859.87
1592516,859.87
1593518,859.87
1594518,813.95
1595520,859.87
1596520,859.87
1597521,836.86
1598522,859.87
1599523,941.18
1600524,859.87
1601525,848.36
1602526,871.41
1603527,848.36
1604528,871.41
1605529,859.87
1606530,848.36
1607531,836.86
1608531,848.36
1609533,848.36
1610534,859.87
1611535,848.36
1612536,848.36
1613537,848.36
1614538,859.87
1615539,848.36
1616540,825.40
1617541,929.49
1618542,848.36
1619543,848.36
1620544,848.36
1621544,848.36
1622546,848.36
1623546,825.40
1624548,802.53
1625548,836.86
1626550,848.36
1627550,848.36
1628552,825.40
1629552,859.87
1630554,848.36
1631554,848.36
1632556,882.98
1633556,871.41
1634557,848.36
1635558,859.87
1636559,848.36
1637560,859.87
1638561,848.36
1639562,848.36
1640563,859.87
1641564,836.86
1642565,848.36
1643567,825.40
1644567,848.36
1645569,848.36
1646569,836.86
1647570,848.36
1648571,848.36
1649572,848.36
1650573,859.87
1651574,848.36
1652575,848.36
1653576,859.87
1654577,859.87
1655578,859.87
1656579,848.36
1657580,882.98
1658580,859.87
1659582,859.87
1660582,859.87
1661584,882.98
1662584,894.57
1663586,859.87
1664586,859.87
1665588,825.40
1666588,848.36
1667590,871.41
1668590,859.87
1669592,859.87
1670592,859.87
1671593,882.98
1672594,848.36
1673595,859.87
1674596,848.36
1675597,859.87
1676598,848.36
1677599,836.86
1678601,848.36
1679601,859.87
1680603,882.98
1681603,882.98
1682605,848.36
1683605,859.87
1684606,894.57
1685607,894.57
1686608,917.82
1687609,848.36
1688610,848.36
1689611,813.95
1690612,859.87
1691613,859.87
1692614,859.87
1693615,848.36
1694616,859.87
1695617,929.49
1696618,859.87
1697618,848.36
1698620,859.87
1699620,859.87
1700622,859.87
1701622,859.87
1702624,859.87
1703624,859.87
1704626,836.86
1705626,848.36
1706628,848.36
1707628,859.87
1708630,859.87
1709631,859.87
1710631,836.86
1711633,859.87
1712633,859.87
1713635,848.36
1714635,859.87
1715637,859.87
1716637,848.36
1717639,848.36
1718639,871.41
1719641,848.36
1720641,848.36
1721643,848.36
1722643,859.87
1723644,848.36
1724645,859.87
1725646,859.87
1726647,859.87
1727648,859.87
1728649,825.40
1729650,848.36
1730651,848.36
1731652,836.86
1732653,848.36
1733654,836.86
1734654,848.36
1735656,859.87
1736656,859.87
1737658,836.86
1738658,848.36
1739660,836.86
1740660,848.36
1741662,848.36
1742663,848.36
1743664,836.86
1744665,848.36
1745666,871.41
1746667,848.36
1747667,848.36
1748669,836.86
1749669,848.36
1750671,848.36
1751671,836.86
1752673,848.36
1753673,859.87
1754675,836.86
1755675,859.87
1756677,859.87
1757677,871.41
1758679,848.36
1759679,859.87
1760680,802.53
1761681,859.87
1762682,848.36
1763683,848.36
1764684,848.36
1765685,779.77
1766686,859.87
1767687,859.87
1768688,859.87
1769689,848.36
1770690,848.36
1771691,836.86
1772692,859.87
1773693,859.87
1774694,859.87
1775695,859.87
1776696,917.82
1777697,848.36
1778698,859.87
1779699,871.41
1780700,848.36
1781701,871.41
1782702,836.86
1783703,848.36
1784704,848.36
1785705,894.57
1786705,894.57
1787707,848.36
1788707,859.87
1789709,882.98
1790709,836.86
1791711,802.53
1792711,848.36
1793713,871.41
1794713,859.87
1795715,859.87
1796715,791.14
1797716,859.87
1798717,859.87
1799718,848.36
1800719,859.87
1801720,848.36
1802721,848.36
1803722,848.36
1804724,848.36
1805724,848.36
1806726,836.86
1807726,836.86
1808728,848.36
1809728,871.41
1810729,859.87
1811730,836.86
1812731,848.36
1813732,859.87
1814733,848.36
1815734,848.36
1816735,848.36
1817736,848.36
1818737,859.87
1819738,848.36
1820739,848.36
1821740,836.86
1822741,848.36
1823741,848.36
1824743,825.40
1825743,836.86
1826745,848.36
1827745,848.36
1828747,836.86
1829747,825.40
1830749,848.36
1831749,859.87
1832751,859.87
1833751,894.57
1834753,859.87
1835754,859.87
1836754,859.87
1837756,848.36
1838756,871.41
1839758,802.53
1840758,871.41
1841760,848.36
1842760,848.36
1843762,859.87
1844762,848.36
1845764,802.53
1846764,836.86
1847766,848.36
1848766,848.36
1849767,848.36
1850768,929.49
1851769,802.53
1852770,848.36
1853771,848.36
1854772,848.36
1855773,836.86
1856774,929.49
1857775,836.86
1858776,848.36
1859777,871.41
1860777,825.40
1861779,848.36
1862779,836.86
1863781,848.36
1864781,848.36
1865783,859.87
1866784,848.36
1867785,848.36
1868786,848.36
1869787,836.86
1870788,848.36
1871789,848.36
1872790,848.36
1873790,848.36
1874792,848.36
1875792,859.87
1876794,871.41
1877794,848.36
1878796,848.36
1879796,825.40
1880798,871.41
1881798,813.95
1882800,848.36
1883800,848.36
1884802,836.86
1885802,848.36
1886803,848.36
1887804,848.36
1888805,836.86
1889806,848.36
1890807,836.86
1891808,848.36
1892809,859.87
1893810,825.40
1894811,813.95
1895812,871.41
1896813,848.36
1897815,871.41
1898815,848.36
1899816,859.87
1900817,848.36
1901818,871.41
1902819,848.36
1903820,871.41
1904821,848.36
1905822,848.36
1906823,848.36
1907824,848.36
1908825,871.41
1909826,848.36
1910827,848.36
1911828,836.86
1912828,871.41
1913830,813.95
1914830,848.36
1915832,848.36
1916832,859.87
1917834,848.36
1918834,848.36
1919836,848.36
1920836,848.36
1921838,848.36
1922838,906.18
1923840,848.36
1924841,848.36
1925841,871.41
1926843,825.40
1927843,848.36
1928845,848.36
1929845,848.36
1930847,882.98
1931847,825.40
1932849,859.87
1933849,859.87
1934851,859.87
1935851,859.87
1936852,848.36
1937853,848.36
1938854,848.36
1939855,848.36
1940856,836.86
1941857,836.86
1942858,836.86
1943859,825.40
1944860,848.36
1945861,813.95
1946862,848.36
1947863,848.36
1948864,848.36
1949864,779.77
1950866,802.53
1951866,859.87
1952868,836.86
1953868,848.36
1954870,813.95
1955870,859.87
1956872,848.36
1957873,836.86
1958874,859.87
1959875,848.36
1960876,836.86
1961877,836.86
1962877,836.86
1963879,836.86
1964879,859.87
1965881,848.36
1966881,859.87
1967883,768.42
1968883,836.86
1969885,848.36
1970885,848.36
1971887,848.36
1972887,929.49
1973889,848.36
1974889,825.40
1975890,882.98
1976891,802.53
1977892,825.40
1978893,848.36
1979894,848.36
1980895,813.95
1981896,848.36
1982897,848.36
1983898,848.36
1984899,848.36
1985900,836.86
1986900,848.36
1987902,848.36
1988903,848.36
1989904,825.40
1990905,917.82
1991906,859.87
1992907,848.36
1993908,848.36
1994909,848.36
1995910,929.49
1996911,779.77
1997912,848.36
1998913,848.36
1999913,917.82
2000915,848.36
2001915,848.36
2002917,848.36
2003917,825.40
2004919,836.86
2005919,848.36
2006921,859.87
2007921,848.36
2008923,859.87
2009923,836.86
2010925,836.86
2011925,871.41
2012926,836.86
2013927,836.86
2014928,813.95
2015929,836.86
2016930,836.86
2017931,836.86
2018932,802.53
2019934,825.40
2020934,836.86
2021936,836.86
2022936,836.86
2023938,848.36
2024938,791.14
2025939,836.86
2026940,836.86
2027941,836.86
2028942,882.98
2029943,813.95
2030944,848.36
2031945,848.36
2032946,848.36
2033947,859.87
2034948,848.36
2035949,848.36
2036950,836.86
2037951,871.41
2038951,836.86
2039953,848.36
2040953,871.41
2041955,836.86
2042955,836.86
2043957,825.40
2044957,825.40
2045959,871.41
2046959,836.86
2047961,848.36
2048961,825.40
2049963,848.36
2050964,859.87
2051964,848.36
2052966,848.36
2053966,848.36
2054968,813.95
2055968,836.86
2056970,836.86
2057970,848.36
2058972,848.36
2059972,836.86
2060974,906.18
2061974,848.36
2062976,836.86
2063976,836.86
2064977,848.36
2065978,848.36
2066979,848.36
2067980,836.86
2068981,836.86
2069982,836.86
2070983,825.40
2071984,802.53
2072985,757.10
2073986,825.40
2074987,836.86
2075987,825.40
2076989,848.36
2077989,848.36
2078991,825.40
2079991,848.36
2080993,859.87
2081993,836.86
2082995,825.40
2083996,836.86
2084997,836.86
2085998,836.86
2086999,825.40
2088000,836.86
2089000,871.41
2090002,836.86
2091002,813.95
2092004,836.86
2093004,894.57
2094006,802.53
2095006,836.86
2096008,836.86
2097008,836.86
2098010,848.36
2099010,779.77
2100012,802.53
2101012,836.86
2102013,836.86
2103014,848.36
2104015,813.95
2105016,848.36
2106017,848.36
2107018,848.36
2108019,859.87
2109020,871.41
2110021,825.40
2111022,859.87
2112023,848.36
2113024,848.36
2114025,848.36
2115025,848.36
2116027,848.36
2117028,779.77
2118029,882.98
2119030,848.36
2120031,859.87
2121032,836.86
2122033,848.36
2123034,848.36
2124035,871.41
2125036,848.36
2126036,848.36
2127038,836.86
2128038,779.77
2129040,791.14
2130040,859.87
2131042,859.87
2132042,848.36
2133044,859.87
2134044,848.36
2135046,859.87
2136046,848.36
2137048,848.36
2138048,859.87
2139049,859.87
2140050,825.40
2141051,848.36
2142052,848.36
2143053,848.36
2144054,836.86
2145055,836.86
2146056,848.36
2147057,848.36
2148059,848.36
2149059,813.95
2150061,859.87
2151061,813.95
2152062,825.40
2153063,848.36
2154064,836.86
2155065,859.87
2156066,802.53
2157067,848.36
2158068,848.36
2159069,848.36
2160070,848.36
2161071,825.40
2162072,813.95
2163073,825.40
2164074,859.87
2165074,871.41
2166076,882.98
2167076,894.57
2168078,848.36
2169078,859.87
2170080,848.36
2171080,859.87
2172082,848.36
2173082,859.87
2174084,836.86
2175084,859.87
2176086,848.36
2177086,848.36
2178087,917.82
2179088,906.18
2180089,848.36
2181091,848.36
2182091,836.86
2183093,825.40
2184093,802.53
2185095,859.87
2186095,848.36
2187097,871.41
2188097,848.36
2189099,859.87
2190099,836.86
2191100,859.87
2192101,882.98
2193102,859.87
2194103,859.87
2195104,848.36
2196105,859.87
2197106,859.87
2198107,848.36
2199108,848.36
2200109,848.36
2201110,848.36
2202110,836.86
2203112,848.36
2204112,848.36
2205114,859.87
2206114,848.36
2207116,825.40
2208116,848.36
2209118,848.36
2210118,848.36
2211120,836.86
2212120,848.36
2213122,848.36
2214123,848.36
2215123,848.36
2216125,836.86
2217125,871.41
2218127,848.36
2219127,848.36
2220129,848.36
2221129,871.41
2222131,825.40
2223131,836.86
2224133,848.36
2225133,871.41
2226135,848.36
2227135,848.36
2228136,836.86
2229137,836.86
2230138,848.36
2231139,859.87
2232140,859.87
2233141,848.36
2234142,848.36
2235143,848.36
2236144,836.86
2237145,871.41
2238146,848.36
2239147,848.36
2240148,836.86
2241148,848.36
2242150,802.53
2243151,848.36
2244152,848.36
2245153,848.36
2246154,836.86
2247155,836.86
2248156,859.87
2249157,836.86
2250158,848.36
2251159,848.36
2252160,813.95
2253161,848.36
2254161,848.36
2255163,859.87
2256163,848.36
2257165,882.98
2258165,859.87
2259167,859.87
2260167,859.87
2261169,859.87
2262169,836.86
2263171,802.53
2264171,836.86
2265172,871.41
2266173,848.36
2267174,906.18
2268175,859.87
2269176,825.40
2270177,859.87
2271178,871.41
2272179,813.95
2273180,859.87
2274181,906.18
2275182,859.87
2276183,871.41
2277184,848.36
2278185,848.36
2279186,871.41
2280187,813.95
2281188,848.36
2282189,859.87
2283190,825.40
2284191,859.87
2285192,859.87
2286193,859.87
2287194,848.36
2288195,848.36
2289196,848.36
2290197,825.40
2291197,859.87
2292199,848.36
2293199,859.87
2294201,848.36
2295201,848.36
2296203,859.87
2297203,871.41
2298205,882.98
2299205,859.87
2300207,836.86
2301207,859.87
2302209,848.36
2303209,871.41
2304210,859.87
2305211,848.36
2306212,813.95
2307214,871.41
2308214,871.41
2309216,848.36
2310216,848.36
2311218,848.36
2312218,871.41
2313220,836.86
2314220,848.36
2315222,848.36
2316222,836.86
2317223,848.36
2318224,848.36
2319225,802.53
2320226,848.36
2321227,836.86
2322228,848.36
2323229,848.36
2324230,848.36
2325231,813.95
2326232,848.36
2327233,836.86
2328233,848.36
2329235,836.86
2330235,825.40
2331237,882.98
2332237,848.36
2333239,836.86
2334239,836.86
2335241,836.86
2336241,802.53
2337243,848.36
2338244,836.86
2339245,836.86
2340246,791.14
2341246,859.87
2342248,848.36
2343248,836.86
2344250,825.40
2345250,825.40
2346252,825.40
2347252,848.36
2348254,791.14
2349254,825.40
2350256,825.40
2351256,836.86
2352258,871.41
2353258,848.36
2354259,734.52
2355260,848.36
2356261,859.87
2357262,848.36
2358263,859.87
2359264,871.41
2360265,859.87
2361266,848.36
2362267,848.36
2363268,859.87
2364269,871.41
2365270,848.36
2366271,848.36
2367272,848.36
2368273,848.36
2369274,859.87
2370275,848.36
2371276,836.86
2372277,848.36
2373278,836.86
2374279,848.36
2375280,848.36
2376281,848.36
2377282,836.86
2378283,825.40
2379284,813.95
2380284,836.86
2381286,825.40
2382286,825.40
2383288,848.36
2384288,848.36
2385290,836.86
2386290,848.36
2387292,871.41
2388292,836.86
2389294,894.57
2390294,825.40
2391296,848.36
2392296,848.36
2393297,848.36
2394298,836.86
2395299,848.36
2396300,825.40
2397301,836.86
2398303,836.86
2399303,836.86
2400305,836.86
2401305,882.98
2402307,825.40
2403307,836.86
2404308,836.86
2405309,836.86
2406310,836.86
2407311,791.14
2408312,929.49
2409313,813.95
2410314,836.86
2411315,848.36
2412316,802.53
2413317,825.40
2414318,848.36
2415319,836.86
2416320,848.36
2417320,848.36
2418322,836.86
2419322,802.53
2420324,825.40
2421324,859.87
2422326,859.87
2423326,848.36
2424328,848.36
2425328,848.36
2426330,859.87
2427330,802.53
2428332,836.86
2429333,848.36
2430333,836.86
2431335,813.95
2432335,825.40
2433337,825.40
2434337,836.86
2435339,836.86
2436339,768.42
2437341,836.86
2438341,825.40
2439343,836.86
2440343,836.86
2441345,836.86
2442345,825.40
2443346,836.86
2444347,813.95
2445348,802.53
2446349,836.86
2447350,836.86
2448351,836.86
2449352,836.86
2450353,836.86
2451354,836.86
2452355,848.36
2453356,836.86
2454356,836.86
2455358,848.36
2456358,836.86
2457360,836.86
2458360,825.40
2459362,848.36
2460362,836.86
2461364,836.86
2462365,836.86
2463366,813.95
2464367,825.40
2465368,836.86
2466369,825.40
2467369,836.86
2468371,836.86
2469371,813.95
2470373,848.36
2471373,836.86
2472375,825.40
2473375,836.86
2474377,768.42
2475377,836.86
2476379,813.95
2477379,848.36
2478381,779.77
2479381,836.86
2480382,848.36
2481383,836.86
2482384,836.86
2483385,813.95
2484386,836.86
2485387,836.86
2486388,871.41
2487389,848.36
2488390,848.36
2489391,848.36
2490392,825.40
2491394,848.36
2492394,791.14
2493395,836.86
2494396,825.40
2495397,836.86
2496398,836.86
2497399,836.86
2498400,848.36
2499401,802.53
2500402,813.95
2501403,848.36
2502404,859.87
2503405,848.36
2504406,871.41
2505407,836.86
2506407,848.36
2507409,791.14
2508409,836.86
2509411,836.86
2510411,859.87
2511413,836.86
2512413,836.86
2513415,836.86
2514415,802.53
2515417,813.95
2516417,836.86
2517419,825.40
2518419,836.86
2519420,825.40
2520421,836.86
2521422,871.41
2522424,836.86
2523424,882.98
2524426,836.86
2525426,836.86
2526428,836.86
2527428,825.40
2528430,825.40
2529430,836.86
2530432,836.86
2531432,848.36
2532433,825.40
2533434,836.86
2534435,859.87
2535436,836.86
2536437,859.87
2537438,836.86
2538439,894.57
2539440,836.86
2540441,836.86
2541442,836.86
2542443,848.36
2543443,825.40
2544445,836.86
2545445,802.53
2546447,825.40
2547447,836.86
2548449,836.86
2549449,836.86
2550451,802.53
2551451,859.87
2552453,825.40
2553454,802.53
2554455,825.40
2555456,802.53
2556456,836.86
2557458,813.95
2558458,813.95
2559460,836.86
2560460,848.36
2561462,848.36
2562462,848.36
2563464,848.36
2564464,848.36
2565466,848.36
2566466,813.95
2567468,848.36
2568468,836.86
2569469,836.86
2570470,836.86
2571471,836.86
2572472,825.40
2573473,848.36
2574474,836.86
2575475,836.86
2576476,836.86
2577477,836.86
2578478,836.86
2579479,802.53
2580480,836.86
2581481,836.86
2582481,871.41
2583483,859.87
2584484,836.86
2585485,836.86
2586486,848.36
2587487,825.40
2588488,859.87
2589489,813.95
2590490,836.86
2591491,836.86
2592492,848.36
2593492,836.86
2594494,825.40
2595494,836.86
2596496,768.42
2597496,848.36
2598498,825.40
2599498,836.86
2600500,768.42
2601500,836.86
2602502,836.86
2603502,791.14
2604504,859.87
2605504,813.95
2606505,859.87
2607506,836.86
2608507,836.86
2609508,836.86
2610509,859.87
2611510,836.86
2612511,848.36
2613512,802.53
2614513,825.40
2615514,848.36
2616515,836.86
2617517,836.86
2618517,848.36
2619518,836.86
2620519,825.40
2621520,802.53
2622521,836.86
2623522,836.86
2624523,848.36
2625524,836.86
2626525,825.40
2627526,836.86
2628527,825.40
2629528,813.95
2630529,836.86
2631530,836.86
2632530,848.36
2633532,836.86
2634532,836.86
2635534,813.95
2636534,871.41
2637536,825.40
2638536,848.36
2639538,848.36
2640538,917.82
2641540,836.86
2642540,848.36
2643542,848.36
2644542,848.36
2645543,848.36
2646544,848.36
2647545,836.86
2648546,848.36
2649547,848.36
2650549,848.36
2651549,825.40
2652551,859.87
2653551,836.86
2654553,848.36
2655553,848.36
2656555,859.87
2657555,836.86
2658556,848.36
2659557,848.36
2660558,848.36
2661559,871.41
2662560,836.86
2663561,848.36
2664562,848.36
2665563,836.86
2666564,825.40
2667565,836.86
2668566,871.41
2669566,836.86
2670568,848.36
2671568,836.86
2672570,836.86
2673570,894.57
2674572,836.86
2675572,836.86
2676574,836.86
2677574,871.41
2678576,836.86
2679576,836.86
2680578,836.86
2681579,848.36
2682579,825.40
2683581,802.53
2684581,836.86
2685583,802.53
2686583,836.86
2687585,836.86
2688585,836.86
2689587,836.86
2690587,848.36
2691589,836.86
2692589,836.86
2693591,791.14
2694591,848.36
2695592,836.86
2696593,836.86
2697594,836.86
2698595,848.36
2699596,848.36
2700597,836.86
2701598,859.87
2702599,848.36
2703600,848.36
2704601,848.36
2705602,848.36
2706603,848.36
2707604,848.36
2708604,825.40
2709606,836.86
2710606,802.53
2711608,813.95
2712608,836.86
2713610,848.36
2714611,836.86
2715612,836.86
2716613,836.86
2717614,836.86
2718615,836.86
2719616,848.36
2720617,813.95
2721617,825.40
2722619,848.36
2723619,836.86
2724621,825.40
2725621,836.86
2726623,859.87
2727623,825.40
2728625,836.86
2729625,813.95
2730627,825.40
2731627,836.86
2732628,836.86
2733629,848.36
2734630,848.36
2735631,802.53
2736632,859.87
2737633,825.40
2738634,848.36
2739635,848.36
2740636,848.36
2741637,848.36
2742638,848.36
2743639,871.41
2744640,917.82
2745640,894.57
2746642,859.87
2747643,848.36
2748644,848.36
2749645,848.36
2750646,848.36
2751647,848.36
2752648,859.87
2753649,859.87
2754650,848.36
2755651,848.36
2756652,859.87
2757653,836.86
2758653,825.40
2759655,802.53
2760655,848.36
2761657,848.36
2762657,836.86
2763659,848.36
2764659,859.87
2765661,848.36
2766661,836.86
2767663,848.36
2768663,848.36
2769665,848.36
2770665,848.36
2771666,836.86
2772667,859.87
2773668,813.95
2774669,848.36
2775670,836.86
2776671,825.40
2777672,836.86
2778674,825.40
2779674,836.86
2780676,825.40
2781676,825.40
2782678,791.14
2783678,917.82
2784679,836.86
2785680,836.86
2786681,825.40
2787682,848.36
2788683,836.86
2789684,836.86
2790685,848.36
2791686,859.87
2792687,848.36
2793688,825.40
2794689,882.98
2795689,836.86
2796691,825.40
2797691,836.86
2798693,825.40
2799693,836.86
2800695,836.86
2801695,836.86
2802697,836.86
2803697,791.14
2804699,836.86
2805699,825.40
2806701,825.40
2807701,836.86
2808702,802.53
2809703,848.36
2810704,836.86
2811706,848.36
2812706,848.36
2813708,848.36
2814708,859.87
2815710,836.86
2816710,825.40
2817712,813.95
2818712,848.36
2819714,825.40
2820714,836.86
2821715,836.86
2822716,848.36
2823717,859.87
2824718,836.86
2825719,836.86
2826720,825.40
2827721,825.40
2828722,825.40
2829723,825.40
2830724,836.86
2831725,836.86
2832726,836.86
2833727,825.40
2834727,848.36
2835729,836.86
2836729,836.86
2837731,836.86
2838731,836.86
2839733,825.40
2840733,859.87
2841735,836.86
2842736,836.86
2843737,848.36
2844738,848.36
2845739,836.86
2846740,848.36
2847740,825.40
2848742,848.36
2849742,825.40
2850744,836.86
2851744,813.95
2852746,859.87
2853746,848.36
2854748,836.86
2855748,825.40
2856750,825.40
2857750,848.36
2858752,836.86
2859752,882.98
2860753,848.36
2861754,906.18
2862755,836.86
2863756,848.36
2864757,836.86
2865758,825.40
2866759,825.40
2867760,813.95
2868761,825.40
2869762,813.95
2870763,802.53
2871763,813.95
2872765,813.95
2873766,802.53
2874767,802.53
2875768,791.14
2876769,802.53
2877770,802.53
2878771,791.14
2879772,791.14
2880773,791.14
2881774,768.42
2882775,768.42
2883776,791.14
2884776,791.14
2885778,791.14
2886778,813.95
2887780,802.53
2888780,802.53
2889782,825.40
2890782,813.95
2891784,825.40
2892784,871.41
2893786,825.40
2894786,802.53
2895788,813.95
2896788,836.86
2897789,825.40
2898790,836.86
2899791,825.40
2900792,825.40
2901793,813.95
2902794,802.53
2903795,813.95
2904797,813.95
2905797,813.95
2906799,802.53
2907799,802.53
2908801,723.27
2909801,802.53
2910802,825.40
2911803,825.40
2912804,871.41
2913805,882.98
2914806,825.40
2915807,825.40
2916808,825.40
2917809,813.95
2918810,813.95
2919811,813.95
2920812,791.14
2921812,791.14
2922814,768.42
2923814,791.14
2924816,802.53
2925816,791.14
2926818,802.53
2927818,802.53
2928820,813.95
2929820,825.40
2930822,836.86
2931822,779.77
2932824,848.36
2933824,871.41
2934825,859.87
2935827,848.36
2936827,836.86
2937829,859.87
2938829,871.41
2939831,825.40
2940831,848.36
2941833,848.36
2942833,848.36
2943835,859.87
2944835,859.87
2945837,825.40
2946837,871.41
2947838,859.87
2948839,836.86
2949840,859.87
2950841,836.86
2951842,848.36
2952843,848.36
2953844,859.87
2954845,859.87
2955846,813.95
2956847,906.18
2957848,848.36
2958849,802.53
2959850,836.86
2960850,859.87
2961852,848.36
2962852,848.36
2963854,836.86
2964854,836.86
2965856,802.53
2966856,836.86
2967858,836.86
2968859,871.41
2969860,917.82
2970861,882.98
2971862,859.87
2972863,859.87
2973863,859.87
2974865,836.86
2975865,859.87
2976867,871.41
2977867,859.87
2978869,906.18
2979869,848.36
2980871,871.41
2981871,882.98
2982873,882.98
2983873,859.87
2984875,779.77
2985875,859.87
2986876,871.41
2987877,882.98
2988878,871.41
2989879,859.87
2990880,882.98
2991881,882.98
2992882,836.86
2993883,871.41
2994884,906.18
2995885,859.87
2996886,859.87
2997886,848.36
2998888,791.14
2999889,848.36
3000890,848.36
3001891,848.36
3002892,825.40
3003893,836.86
3004894,825.40
3005895,836.86
3006896,848.36
3007897,882.98
3008898,836.86
3009899,825.40
3010899,836.86
3011901,825.40
3012901,825.40
3013903,825.40
3014903,836.86
3015905,836.86
3016905,836.86
3017907,791.14
3018907,825.40
3019909,825.40
3020909,836.86
3021911,825.40
3022911,825.40
3023912,813.95
3024913,825.40
3025914,836.86
3026915,836.86
3027916,825.40
3028917,825.40
3029918,825.40
3030920,825.40
3031920,836.86
3032922,813.95
3033922,825.40
3034924,813.95
3035924,825.40
3036925,825.40
3037926,802.53
3038927,813.95
3039928,825.40
3040929,802.53
3041930,813.95
3042931,825.40
3043932,813.95
3044933,813.95
3045934,791.14
3046935,894.57
3047936,802.53
3048937,802.53
3049937,813.95
3050939,813.95
3051939,768.42
3052941,813.95
3053941,813.95
3054943,768.42
3055943,779.77
3056945,813.95
3057945,825.40
3058947,802.53
3059948,802.53
3060948,757.10
3061950,813.95
3062950,813.95
3063952,813.95
3064952,813.95
3065954,871.41
3066954,802.53
3067956,825.40
3068956,802.53
3069958,825.40
3070958,859.87
3071960,813.95
3072960,825.40
3073961,813.95
3074962,825.40
3075963,802.53
3076964,802.53
3077965,791.14
3078966,802.53
3079967,836.86
3080968,802.53
3081969,802.53
3082970,768.42
3083971,779.77
3084972,848.36
3085973,825.40
3086973,836.86
3087975,836.86
3088975,768.42
3089977,848.36
3090978,836.86
3091979,825.40
3092980,848.36
3093981,848.36
3094982,871.41
3095983,836.86
3096984,848.36
3097985,859.87
3098986,848.36
3099986,859.87
3100988,825.40
3101988,813.95
3102990,802.53
3103990,779.77
3104992,813.95
3105992,813.95
3106994,825.40
3107994,813.95
3108996,825.40
3109996,825.40
3110998,836.86
3111998,825.40
3112999,836.86
3114000,848.36
3115001,791.14
3116002,825.40
3117003,825.40
3118004,825.40
3119005,836.86
3120006,779.77
3121007,813.95
3122009,813.95
3123009,802.53
3124011,836.86
3125011,802.53
3126012,802.53
3127013,813.95
3128014,802.53
3129015,802.53
3130016,779.77
3131017,802.53
3132018,813.95
3133019,813.95
3134020,825.40
3135021,802.53
3136022,802.53
3137022,825.40
3138024,825.40
3139024,813.95
3140026,836.86
3141026,836.86
3142028,848.36
3143028,848.36
3144030,859.87
3145030,848.36
3146032,848.36
3147032,848.36
3148034,848.36
3149034,825.40
3150035,848.36
3151036,813.95
3152037,825.40
3153039,825.40
3154039,825.40
3155041,836.86
3156041,779.77
3157043,802.53
3158043,802.53
3159045,768.42
3160045,813.95
3161047,813.95
3162047,791.14
3163048,813.95
3164049,813.95
3165050,802.53
3166051,825.40
3167052,859.87
3168053,825.40
3169054,813.95
3170055,848.36
3171056,859.87
3172057,825.40
3173058,836.86
3174059,825.40
3175060,813.95
3176060,802.53
3177062,813.95
3178062,859.87
3179064,802.53
3180064,813.95
3181066,802.53
3182066,802.53
3183068,791.14
3184069,802.53
3185070,779.77
3186071,779.77
3187072,768.42
3188073,791.14
3189073,791.14
3190075,791.14
3191075,757.10
3192077,779.77
3193077,802.53
3194079,802.53
3195079,825.40
3196081,802.53
3197081,813.95
3198083,802.53
3199083,802.53
3200084,802.53
3201085,825.40
3202086,825.40
3203087,859.87
3204088,825.40
3205089,791.14
3206090,825.40
3207091,836.86
3208092,836.86
3209093,871.41
3210094,836.86
3211096,825.40
3212096,825.40
3213097,825.40
3214098,825.40
3215099,825.40
3216100,859.87
3217101,802.53
3218102,825.40
3219103,813.95
3220104,813.95
3221105,825.40
3222106,813.95
3223107,825.40
3224108,791.14
3225109,825.40
3226109,825.40
3227111,825.40
3228111,825.40
3229113,871.41
3230113,929.49
3231115,836.86
3232115,836.86
3233117,813.95
3234117,836.86
3235119,825.40
3236119,848.36
3237121,836.86
3238121,825.40
3239122,802.53
3240123,802.53
3241124,802.53
3242126,813.95
3243126,836.86
3244128,791.14
3245128,836.86
3246130,813.95
3247130,836.86
3248132,836.86
3249132,825.40
3250134,836.86
3251134,917.82
3252135,848.36
3253136,802.53
3254137,825.40
3255138,825.40
3256139,802.53
3257140,813.95
3258141,802.53
3259142,791.14
3260143,802.53
3261144,802.53
3262145,813.95
3263145,791.14
3264147,802.53
3265147,813.95
3266149,813.95
3267149,802.53
3268151,802.53
3269151,825.40
3270153,802.53
3271154,813.95
3272155,802.53
3273156,768.42
3274157,802.53
3275158,802.53
3276158,791.14
3277160,802.53
3278160,791.14
3279162,802.53
3280162,791.14
3281164,802.53
3282164,779.77
3283166,779.77
3284166,791.14
3285168,779.77
3286168,779.77
3287170,779.77
3288170,779.77
3289171,779.77
3290172,791.14
3291173,791.14
3292174,802.53
3293175,802.53
3294176,779.77
3295177,825.40
3296178,791.14
3297179,836.86
3298180,825.40
3299181,825.40
3300182,836.86
3301183,825.40
3302184,836.86
3303185,825.40
3304186,859.87
3305187,825.40
3306188,813.95
3307189,802.53
3308190,802.53
3309191,825.40
3310192,836.86
3311193,791.14
3312194,825.40
3313195,836.86
3314196,882.98
3315196,802.53
3316198,836.86
3317198,894.57
3318200,836.86
3319200,825.40
3320202,836.86
3321202,836.86
3322204,848.36
3323204,836.86
3324206,848.36
3325206,813.95
3326208,813.95
3327208,779.77
3328209,813.95
3329210,813.95
3330211,802.53
3331212,825.40
3332213,825.40
3333215,825.40
3334215,836.86
3335217,848.36
3336217,848.36
3337219,813.95
3338219,836.86
3339220,836.86
3340221,825.40
3341222,848.36
3342223,848.36
3343224,848.36
3344225,871.41
3345226,848.36
3346227,848.36
3347228,836.86
3348229,802.53
3349230,859.87
3350231,929.49
3351232,859.87
3352232,813.95
3353234,848.36
3354234,848.36
3355236,859.87
3356236,836.86
3357238,836.86
3358238,836.86
3359240,882.98
3360240,836.86
3361242,768.42
3362242,813.95
3363244,768.42
3364244,848.36
3365245,836.86
3366247,825.40
3367247,848.36
3368249,825.40
3369249,848.36
3370251,813.95
3371251,894.57
3372253,813.95
3373253,859.87
3374255,836.86
3375255,825.40
3376257,825.40
3377257,848.36
3378258,848.36
3379259,848.36
3380260,848.36
3381261,859.87
3382262,848.36
3383263,882.98
3384264,825.40
3385265,859.87
3386266,859.87
3387267,848.36
3388268,848.36
3389268,848.36
3390270,836.86
3391270,836.86
3392272,836.86
3393272,825.40
3394274,859.87
3395274,848.36
3396276,848.36
3397276,836.86
3398278,848.36
3399279,848.36
3400280,836.86
3401281,836.86
3402281,894.57
3403283,802.53
3404283,825.40
3405285,768.42
3406285,791.14
3407287,802.53
3408287,813.95
3409289,825.40
3410289,825.40
3411291,825.40
3412291,836.86
3413293,836.86
3414293,825.40
3415294,802.53
3416295,836.86
3417296,836.86
3418297,836.86
3419298,836.86
3420299,836.86
3421300,825.40
3422301,836.86
3423302,836.86
3424303,848.36
3425304,836.86
3426305,791.14
3427306,825.40
3428306,825.40
3429308,813.95
3430309,802.53
3431310,813.95
3432311,825.40
3433312,871.41
3434313,779.77
3435314,848.36
3436315,825.40
3437316,802.53
3438317,813.95
3439318,825.40
3440319,813.95
3441319,813.95
3442321,791.14
3443321,859.87
3444323,802.53
3445323,813.95
3446325,825.40
3447325,836.86
3448327,813.95
3449327,813.95
3450329,813.95
3451329,802.53
3452331,813.95
3453331,802.53
3454332,802.53
3455333,813.95
3456334,813.95
3457335,813.95
3458336,825.40
3459337,802.53
3460338,802.53
3461340,882.98
3462340,791.14
3463342,825.40
3464342,848.36
3465344,825.40
3466344,825.40
3467345,813.95
3468346,802.53
3469347,813.95
3470348,848.36
3471349,825.40
3472350,791.14
3473351,813.95
3474352,813.95
3475353,825.40
3476354,802.53
3477355,825.40
3478355,802.53
3479357,825.40
3480357,825.40
3481359,825.40
3482359,825.40
3483361,825.40
3484361,825.40
3485363,813.95
3486363,802.53
3487365,813.95
3488365,813.95
3489367,768.42
3490367,802.53
3491368,813.95
3492369,813.95
3493370,813.95
3494372,825.40
3495372,802.53
3496374,791.14
3497374,791.14
3498376,802.53
3499376,802.53
3500378,791.14
3501378,791.14
3502380,791.14
3503380,791.14
3504381,802.53
3505382,802.53
3506383,825.40
3507384,825.40
3508385,825.40
3509386,825.40
3510387,813.95
3511388,825.40
3512389,836.86
3513390,836.86
3514391,813.95
3515392,779.77
3516393,813.95
3517393,825.40
3518395,825.40
3519395,836.86
3520397,813.95
3521397,825.40
3522399,825.40
3523399,813.95
3524401,802.53
3525402,802.53
3526403,802.53
3527404,768.42
3528404,791.14
3529406,791.14
3530406,791.14
3531408,791.14
3532408,791.14
3533410,802.53
3534410,802.53
3535412,768.42
3536412,779.77
3537414,802.53
3538414,813.95
3539416,813.95
3540416,791.14
3541417,768.42
3542418,779.77
3543419,791.14
3544420,779.77
3545421,802.53
3546422,779.77
3547423,802.53
3548424,802.53
3549425,813.95
3550426,813.95
3551427,813.95
3552428,825.40
3553429,848.36
3554430,825.40
3555431,779.77
3556432,813.95
3557433,813.95
3558434,802.53
3559435,813.95
3560436,802.53
3561437,859.87
3562438,825.40
3563439,813.95
3564440,802.53
3565441,802.53
3566442,802.53
3567442,802.53
3568444,813.95
3569444,813.95
3570446,802.53
3571446,802.53
3572448,768.42
3573448,813.95
3574450,813.95
3575450,802.53
3576452,871.41
3577452,813.95
3578454,802.53
3579454,802.53
3580455,813.95
3581456,825.40
3582457,825.40
3583458,813.95
3584459,813.95
3585461,825.40
3586461,802.53
3587463,859.87
3588463,836.86
3589465,825.40
3590465,848.36
3591467,836.86
3592467,859.87
3593468,836.86
3594469,825.40
3595470,825.40
3596471,802.53
3597472,813.95
3598473,802.53
3599474,825.40
3600475,813.95
3601476,779.77
3602477,791.14
3603478,848.36
3604478,825.40
3605480,825.40
3606480,768.42
3607482,813.95
3608482,757.10
3609484,813.95
3610484,813.95
3611486,802.53
3612486,791.14
3613488,825.40
3614488,802.53
3615490,802.53
3616490,813.95
3617491,802.53
3618493,802.53
3619493,802.53
3620495,802.53
3621495,779.77
3622497,813.95
3623497,779.77
3624499,813.95
3625499,802.53
3626501,813.95
3627501,825.40
3628503,825.40
3629503,825.40
3630504,813.95
3631505,836.86
3632506,836.86
3633507,825.40
3634508,813.95
3635509,813.95
3636510,802.53
